Energy Intensity Error
-29.678 0 1
-29.62 0 1
-29.562 0 1
-29.504 9.3327e-05 2.8557e-05
-29.446 0.00010919 3.0934e-05
-29.388 0.00014276 4.3683e-05
-29.33 0.00014136 3.9552e-05
-29.272 0.00013409 2.8694e-05
-29.214 0.00013427 3.0719e-05
-29.156 0.00013817 3.1433e-05
-29.098 0.00014865 3.2278e-05
-29.04 0.0001275 2.9849e-05
-28.982 0.00017899 4.0607e-05
-28.924 0.00016595 3.8848e-05
-28.865 0.00015927 3.8201e-05
-28.807 0.00010064 2.724e-05
-28.749 0.00019015 4.5214e-05
-28.691 0.00011338 3.069e-05
-28.633 0.00012733 3.3812e-05
-28.575 0.00015117 3.8852e-05
-28.517 0.00015285 3.9581e-05
-28.459 8.7672e-05 2.6826e-05
-28.401 0.00016479 4.2674e-05
-28.343 0.00015937 4.1951e-05
-28.285 0.0001482 4.0113e-05
-28.227 0.00016964 4.4652e-05
-28.169 0.00015531 4.204e-05
-28.111 0.00019548 5.0241e-05
-28.053 0.00016254 4.3995e-05
-27.995 0.00017379 4.658e-05
-27.937 0.00013642 3.9166e-05
-27.879 0.00012538 3.7073e-05
-27.821 0.00015494 4.335e-05
-27.763 0.00015124 4.2845e-05
-27.705 0.00013301 3.9329e-05
-27.647 0.00010642 3.3901e-05
-27.589 0.00010891 3.4693e-05
-27.531 0.00013983 4.1347e-05
-27.473 0.00016494 4.6728e-05
-27.415 0.0001599 4.5906e-05
-27.357 0.00017777 4.9739e-05
-27.299 0.00021307 5.7109e-05
-27.241 0.00015171 4.4861e-05
-27.183 0.00016057 4.6761e-05
-27.125 0.00017941 5.0825e-05
-27.067 0.0001974 5.4588e-05
-27.009 0.00017591 5.0502e-05
-26.951 0.00013392 4.1775e-05
-26.893 0.00014516 4.4417e-05
-26.835 0.00015575 4.6819e-05
-26.777 0.00017411 5.0702e-05
-26.719 0.00015069 4.6109e-05
-26.661 0.00022361 6.1158e-05
-26.603 0.00010924 3.7547e-05
-26.545 0.00013701 4.3642e-05
-26.487 0.00014748 4.6006e-05
-26.429 0.00015864 4.8541e-05
-26.371 0.00018913 5.5077e-05
-26.313 0.00011456 3.9374e-05
-26.255 0.00013442 4.3812e-05
-26.197 0.000136 4.4328e-05
-26.138 0.00012758 4.2643e-05
-26.08 0.00021746 6.1606e-05
-26.022 0.00019714 5.741e-05
-25.964 0.0001494 4.7591e-05
-25.906 0.00013109 4.3817e-05
-25.848 0.00015109 4.8129e-05
-25.79 0.00016179 5.0467e-05
-25.732 0.00018387 5.5271e-05
-25.674 0.00015471 4.9283e-05
-25.616 0.00018674 5.6135e-05
-25.558 0.00015619 4.9754e-05
-25.5 0.00027278 7.3835e-05
-25.442 0.000149 4.8565e-05
-25.384 0.00011724 4.1569e-05
-25.326 0.00014903 4.8575e-05
-25.268 0.00013041 4.4823e-05
-25.21 0.00011981 4.2481e-05
-25.152 0.00014293 4.7774e-05
-25.094 0.0001754 5.4714e-05
-25.036 0.00013264 4.5589e-05
-24.978 0.00018941 5.7956e-05
-24.92 0.00015532 5.0622e-05
-24.862 0.00022277 6.4873e-05
-24.804 0.00011234 4.1248e-05
-24.746 9.1146e-05 3.6436e-05
-24.688 0.00018254 5.6941e-05
-24.63 9.1817e-05 3.6704e-05
-24.572 0.0001495 4.9972e-05
-24.514 0.00016411 5.3488e-05
-24.456 0.00015242 5.0946e-05
-24.398 0.0001176 4.3178e-05
-24.34 0.00011841 4.3474e-05
-24.282 0.00010711 4.0914e-05
-24.224 0.00017869 5.692e-05
-24.166 9.5598e-05 3.8216e-05
-24.108 0.00018151 5.782e-05
-24.05 0.00021831 6.5625e-05
-23.992 0.00020753 6.3502e-05
-23.934 8.4884e-05 3.5778e-05
-23.876 0.00011074 4.23e-05
-23.818 0.00019836 6.1875e-05
-23.76 0.0002106 6.444e-05
-23.702 0.00011151 4.2595e-05
-23.644 0.00013661 4.8435e-05
-23.586 0.00013744 4.873e-05
-23.528 0.00020119 6.2757e-05
-23.47 8.7554e-05 3.6904e-05
-23.412 8.8368e-05 3.7247e-05
-23.353 0.00012781 4.6927e-05
-23.295 0.00016511 5.5189e-05
-23.237 0.00026668 7.6561e-05
-23.179 0.00015405 5.2948e-05
-23.121 0.00010238 4.0928e-05
-23.063 0.00023105 6.9452e-05
-23.005 0.00017943 5.8481e-05
-22.947 0.0001547 5.3172e-05
-22.889 0.00014372 5.0956e-05
-22.831 0.00014352 5.0885e-05
-22.773 0.00018194 5.93e-05
-22.715 0.00018442 6.0107e-05
-22.657 0.00010549 4.2169e-05
-22.599 7.9706e-05 3.5776e-05
-22.541 0.00017252 5.7664e-05
-22.483 0.00014628 5.1865e-05
-22.425 0.00017616 5.8883e-05
-22.367 0.00018661 6.0822e-05
-22.309 0.00017453 5.8339e-05
-22.251 0.00014926 5.2921e-05
-22.193 0.00016411 5.6406e-05
-22.135 8.1971e-05 3.6793e-05
-22.077 0.00023198 7.0982e-05
-22.019 0.0002317 7.0898e-05
-21.961 0.0002206 6.8814e-05
-21.903 0.00012438 4.751e-05
-21.845 8.2616e-05 3.7082e-05
-21.787 0.00012434 4.7497e-05
-21.729 0.00012526 4.7849e-05
-21.671 0.00018138 6.0627e-05
-21.613 0.00019529 6.3652e-05
-21.555 0.00019747 6.4363e-05
-21.497 0.00011224 4.4869e-05
-21.439 0.00021056 6.7072e-05
-21.381 7.0156e-05 3.3995e-05
-21.323 0.00015579 5.5236e-05
-21.265 0.00012893 4.9249e-05
-21.207 0.00014128 5.1873e-05
-21.149 0.00012817 4.8961e-05
-21.091 5.74e-05 3.0632e-05
-21.033 0.00011494 4.5946e-05
-20.975 0.00014306 5.2525e-05
-20.917 5.758e-05 3.0729e-05
-20.859 5.8051e-05 3.098e-05
-20.801 0.00018827 6.293e-05
-20.743 0.00017366 5.9689e-05
-20.685 0.00013159 5.0267e-05
-20.626 0.00010266 4.3271e-05
-20.568 0.00014561 5.3463e-05
-20.51 8.7753e-05 3.9388e-05
-20.452 8.7778e-05 3.9399e-05
-20.394 7.3345e-05 3.5541e-05
-20.336 0.00010357 4.3655e-05
-20.278 0.00016289 5.7753e-05
-20.22 0.00020535 6.6929e-05
-20.162 0.00011971 4.7853e-05
-20.104 0.0001485 5.4523e-05
-20.046 0.00014867 5.4583e-05
-19.988 0.00016331 5.7904e-05
-19.93 0.00011979 4.7886e-05
-19.872 0.00016495 5.8486e-05
-19.814 0.00013473 5.1464e-05
-19.756 0.00014905 5.4723e-05
-19.698 0.00030163 8.7838e-05
-19.64 0.00010651 4.4893e-05
-19.582 0.00015088 5.5398e-05
-19.524 0.00018051 6.2044e-05
-19.466 0.00010633 4.4819e-05
-19.408 9.1608e-05 4.1119e-05
-19.35 0.00012214 4.8826e-05
-19.292 0.00019669 6.5743e-05
-19.234 0.00012198 4.8762e-05
-19.176 0.00013803 5.2724e-05
-19.118 0.00013738 5.2477e-05
-19.06 0.00010704 4.5119e-05
-19.002 0.00012319 4.9244e-05
-18.944 9.2988e-05 4.1738e-05
-18.886 6.1549e-05 3.2847e-05
-18.828 0.00015409 5.6575e-05
-18.77 0.00015453 5.6735e-05
-18.712 0.00015623 5.736e-05
-18.654 0.0001698 6.0203e-05
-18.596 0.00015562 5.7136e-05
-18.538 0.00020364 6.8067e-05
-18.48 0.00018754 6.4459e-05
-18.422 0.00015587 5.7228e-05
-18.364 0.00014037 5.3619e-05
-18.306 0.00014204 5.4259e-05
-18.248 0.00017307 6.1365e-05
-18.19 0.00012638 5.0521e-05
-18.132 7.802e-05 3.7806e-05
-18.074 0.00012594 5.0343e-05
-18.016 0.0002058 6.879e-05
-17.958 0.00011096 4.6771e-05
-17.9 7.8933e-05 3.8248e-05
-17.841 0.00020872 6.9765e-05
-17.783 0.00019214 6.6042e-05
-17.725 0.00014337 5.4766e-05
-17.667 0.00011133 4.6927e-05
-17.609 0.00012954 5.1782e-05
-17.551 0.00011263 4.7472e-05
-17.493 0.00022594 7.3641e-05
-17.435 0.00011168 4.7074e-05
-17.377 9.688e-05 4.3485e-05
-17.319 0.00017769 6.3001e-05
-17.261 0.00014613 5.5821e-05
-17.203 0.0001128 4.7546e-05
-17.145 9.6853e-05 4.3473e-05
-17.087 4.8639e-05 2.9511e-05
-17.029 0.00019566 6.7252e-05
-16.971 9.7133e-05 4.3598e-05
-16.913 8.1375e-05 3.9432e-05
-16.855 0.00017807 6.3137e-05
-16.797 0.0001143 4.8175e-05
-16.739 0.00011408 4.8086e-05
-16.681 6.5066e-05 3.4724e-05
-16.623 9.8628e-05 4.427e-05
-16.565 6.5404e-05 3.4904e-05
-16.507 0.00016228 5.9584e-05
-16.449 0.00011471 4.8349e-05
-16.391 0.00024544 7.8182e-05
-16.333 6.5151e-05 3.4769e-05
-16.275 0.00022981 7.4904e-05
-16.217 0.00011516 4.854e-05
-16.159 9.8746e-05 4.4323e-05
-16.101 8.2438e-05 3.9947e-05
-16.043 0.00016439 6.0355e-05
-15.985 0.00022916 7.4691e-05
-15.927 0.00023162 7.5492e-05
-15.869 0.00019788 6.8014e-05
-15.811 8.2737e-05 4.0092e-05
-15.753 0.00018254 6.4721e-05
-15.695 0.0001161 4.8936e-05
-15.637 0.0001328 5.3085e-05
-15.579 0.00021449 7.1694e-05
-15.521 0.00019972 6.8647e-05
-15.463 0.00011668 4.918e-05
-15.405 8.3823e-05 4.0618e-05
-15.347 0.0001664 6.1093e-05
-15.289 0.00013452 5.3776e-05
-15.231 0.00010128 4.546e-05
-15.173 0.00013469 5.3844e-05
-15.114 0.00011667 4.9178e-05
-15.056 0.00015148 5.7863e-05
-14.998 6.7268e-05 3.5899e-05
-14.94 6.7673e-05 3.6115e-05
-14.882 0.00016838 6.1821e-05
-14.824 0.0001353 5.4085e-05
-14.766 0.00013545 5.4146e-05
-14.708 0.00013591 5.4329e-05
-14.65 0.00013377 5.3476e-05
-14.592 0.00017001 6.242e-05
-14.534 0.00017064 6.2652e-05
-14.476 0.00018709 6.6334e-05
-14.418 0.0001708 6.2709e-05
-14.36 0.00015268 5.8324e-05
-14.302 0.00020495 7.0443e-05
-14.244 0.00010229 4.5913e-05
-14.186 0.00011935 5.0304e-05
-14.128 0.00017039 6.2559e-05
-14.07 0.00015381 5.8752e-05
-14.012 0.00020279 6.9699e-05
-13.954 0.00011882 5.0084e-05
-13.896 0.00013633 5.4498e-05
-13.838 0.00015427 5.893e-05
-13.78 0.00011984 5.0514e-05
-13.722 6.8033e-05 3.6307e-05
-13.664 0.0001195 5.0369e-05
-13.606 6.9052e-05 3.6851e-05
-13.548 8.5557e-05 4.1458e-05
-13.49 8.5785e-05 4.1568e-05
-13.432 0.00013806 5.519e-05
-13.374 8.6093e-05 4.1718e-05
-13.316 6.8753e-05 3.6691e-05
-13.258 8.6245e-05 4.1792e-05
-13.2 0.00013818 5.5236e-05
-13.142 8.66e-05 4.1963e-05
-13.084 8.6764e-05 4.2043e-05
-13.026 0.00010345 4.6435e-05
-12.968 8.7297e-05 4.2301e-05
-12.91 0.00012214 5.1483e-05
-12.852 0.0001043 4.6817e-05
-12.794 0.00017222 6.3233e-05
-12.736 0.00013828 5.5277e-05
-12.678 8.6735e-05 4.2029e-05
-12.62 0.00017452 6.4076e-05
-12.562 0.00012091 5.0964e-05
-12.504 8.6775e-05 4.2048e-05
-12.446 0.00012334 5.1988e-05
-12.388 0.00013819 5.5242e-05
-12.329 0.00020844 7.1642e-05
-12.271 8.7089e-05 4.22e-05
-12.213 0.00010477 4.7028e-05
-12.155 0.00013947 5.5755e-05
-12.097 5.2323e-05 3.1747e-05
-12.039 0.00014026 5.6068e-05
-11.981 0.00010539 4.7305e-05
-11.923 8.7657e-05 4.2475e-05
-11.865 0.00013938 5.5717e-05
-11.807 0.00010576 4.7472e-05
-11.749 0.00012349 5.2052e-05
-11.691 0.00012262 5.1682e-05
-11.633 0.00012188 5.1374e-05
-11.575 0.00012302 5.1853e-05
-11.517 0.00017635 6.4749e-05
-11.459 6.9937e-05 3.7323e-05
-11.401 0.00021251 7.3041e-05
-11.343 0.00012317 5.1918e-05
-11.285 8.8302e-05 4.2788e-05
-11.227 0.00015802 6.0363e-05
-11.169 0.00012233 5.156e-05
-11.111 0.00012305 5.1866e-05
-11.053 0.00024814 8.0876e-05
-10.995 0.00017616 6.4678e-05
-10.937 0.00012233 5.156e-05
-10.879 0.00010588 4.7525e-05
-10.821 8.8876e-05 4.3066e-05
-10.763 0.00017648 6.4797e-05
-10.705 7.0549e-05 3.765e-05
-10.647 0.00012418 5.2342e-05
-10.589 0.00023104 7.7226e-05
-10.531 0.00017816 6.5413e-05
-10.473 0.00017549 6.4433e-05
-10.415 0.00015914 6.0789e-05
-10.357 8.898e-05 4.3116e-05
-10.299 8.9371e-05 4.3306e-05
-10.241 0.00019551 6.9318e-05
-10.183 0.00010621 4.7672e-05
-10.125 8.9017e-05 4.3134e-05
-10.067 0.00016103 6.1513e-05
-10.009 0.00010629 4.771e-05
-9.9506 0.00012487 5.2632e-05
-9.8926 0.00012504 5.2704e-05
-9.8346 7.1457e-05 3.8134e-05
-9.7766 8.9051e-05 4.3151e-05
-9.7185 0.00019812 7.0246e-05
-9.6605 5.3525e-05 3.2476e-05
-9.6025 8.9554e-05 4.3395e-05
-9.5445 7.0812e-05 3.779e-05
-9.4864 7.1218e-05 3.8007e-05
-9.4284 0.00010786 4.8415e-05
-9.3704 0.00010709 4.8067e-05
-9.3124 5.333e-05 3.2358e-05
-9.2544 7.2103e-05 3.8479e-05
-9.1963 0.00012588 5.306e-05
-9.1383 7.1518e-05 3.8167e-05
-9.0803 0.0001959 6.946e-05
-9.0223 0.00021604 7.4254e-05
-8.9643 0.00014406 5.759e-05
-8.9062 0.00018099 6.645e-05
-8.8482 0.00012502 5.2694e-05
-8.7902 0.00019737 6.9981e-05
-8.7322 0.00010827 4.8598e-05
-8.6742 0.00010916 4.8997e-05
-8.6161 0.00010691 4.7987e-05
-8.5581 0.00012661 5.3368e-05
-8.5001 9.0641e-05 4.3921e-05
-8.4421 7.1876e-05 3.8358e-05
-8.384 0.00010717 4.8102e-05
-8.326 0.0001981 7.0239e-05
-8.268 0.00019794 7.0181e-05
-8.21 0.00028762 8.972e-05
-8.152 0.0001441 5.7605e-05
-8.0939 0.00010819 4.856e-05
-8.0359 0.00010952 4.9157e-05
-7.9779 0.00010864 4.8763e-05
-7.9199 0.00023389 7.8178e-05
-7.8619 0.00014425 5.7666e-05
-7.8038 7.3042e-05 3.898e-05
-7.7458 0.00012641 5.3281e-05
-7.6878 9.059e-05 4.3897e-05
-7.6298 0.00019782 7.0138e-05
-7.5718 0.00012659 5.3359e-05
-7.5137 9.1164e-05 4.4175e-05
-7.4557 0.00017997 6.6077e-05
-7.3977 0.00023572 7.8791e-05
-7.3397 3.6395e-05 2.6615e-05
-7.2816 0.00021785 7.4877e-05
-7.2236 0.00012651 5.3323e-05
-7.1656 0.00014824 5.9261e-05
-7.1076 0.00016584 6.3349e-05
-7.0496 0.00010802 4.8484e-05
-6.9915 0.0002014 7.141e-05
-6.9335 0.00023877 7.981e-05
-6.8755 0.00018159 6.6673e-05
-6.8175 0.00012829 5.4076e-05
-6.7595 0.00016343 6.2429e-05
-6.7014 0.00010902 4.8935e-05
-6.6434 7.4144e-05 3.9568e-05
-6.5854 5.4351e-05 3.2977e-05
-6.5274 0.00012763 5.3797e-05
-6.4694 0.00016248 6.2065e-05
-6.4113 0.00012884 5.4306e-05
-6.3533 0.00018328 6.7291e-05
-6.2953 9.1344e-05 4.4262e-05
-6.2373 0.00019857 7.0406e-05
-6.1792 0.00016772 6.4069e-05
-6.1212 0.00023662 7.9093e-05
-6.0632 9.046e-05 4.3834e-05
-6.0052 7.2274e-05 3.8571e-05
-5.9472 0.00011179 5.0179e-05
-5.8891 0.00023464 7.843e-05
-5.8311 0.00014467 5.7832e-05
-5.7731 0.00022151 7.6135e-05
-5.7151 0.00018089 6.6414e-05
-5.6571 0.00011065 4.9668e-05
-5.599 0.00012818 5.4027e-05
-5.541 0.00012662 5.3372e-05
-5.483 0.00012622 5.3201e-05
-5.425 0.00016562 6.3265e-05
-5.3669 9.0197e-05 4.3706e-05
-5.3089 0.00010975 4.9262e-05
-5.2509 0.00014676 5.8669e-05
-5.1929 9.1517e-05 4.4346e-05
-5.1349 0.00014519 5.8042e-05
-5.0768 7.2935e-05 3.8923e-05
-5.0188 7.3201e-05 3.9065e-05
-4.9608 0.0002009 7.123e-05
-4.9028 0.00023582 7.8824e-05
-4.8448 0.00014532 5.8094e-05
-4.7867 0.00014713 5.8817e-05
-4.7287 0.00016292 6.2234e-05
-4.6707 5.4722e-05 3.3202e-05
-4.6127 0.00010949 4.9143e-05
-4.5547 0.00020213 7.1666e-05
-4.4966 0.00012829 5.4074e-05
-4.4386 7.3192e-05 3.906e-05
-4.3806 0.00010878 4.8827e-05
-4.3226 0.00016514 6.308e-05
-4.2645 0.00011016 4.9447e-05
-4.2065 0.00018362 6.7417e-05
-4.1485 0.00016464 6.289e-05
-4.0905 0.00012869 5.4241e-05
-4.0325 0.00020176 7.1534e-05
-3.9744 0.00025536 8.3229e-05
-3.9164 0.00012866 5.423e-05
-3.8584 0.00012897 5.4362e-05
-3.8004 7.3955e-05 3.9467e-05
-3.7424 0.00018334 6.7314e-05
-3.6843 0.00016496 6.3014e-05
-3.6263 0.0002406 8.0422e-05
-3.5683 0.00018384 6.7496e-05
-3.5103 0.00016553 6.3229e-05
-3.4523 0.00020409 7.2363e-05
-3.3942 0.00025678 8.3693e-05
-3.3362 0.00023917 7.9942e-05
-3.2782 7.4323e-05 3.9664e-05
-3.2202 0.00022204 7.6317e-05
-3.1621 0.00012738 5.3691e-05
-3.1041 0.00020424 7.2413e-05
-3.0461 0.000182 6.6824e-05
-2.9881 0.00023734 7.9334e-05
-2.9301 0.00019052 6.9951e-05
-2.872 0.00014446 5.7749e-05
-2.814 0.00016714 6.3847e-05
-2.756 0.00020258 7.1826e-05
-2.698 0.00016478 6.2942e-05
-2.64 0.00035894 0.00010614
-2.5819 0.00028497 8.8893e-05
-2.5239 0.00036081 0.00010669
-2.4659 0.00029789 9.1149e-05
-2.4079 0.00029067 9.259e-05
-2.3499 0.00024948 8.1315e-05
-2.2918 0.0003334 0.00010022
-2.2338 0.00036363 0.00010589
-2.1758 0.00028257 9.0011e-05
-2.1178 0.00037005 0.00010776
-2.0597 0.00042088 0.00011639
-2.0017 0.00021996 7.7989e-05
-1.9437 0.00040756 0.00011403
-1.8857 0.00042058 0.00011767
-1.8277 0.00042199 0.00011955
-1.7696 0.0004171 0.0001167
-1.7116 0.00054583 0.00014248
-1.6536 0.00042803 0.00011976
-1.5956 0.00079801 0.00019415
-1.5376 0.00086846 0.00020258
-1.4795 0.0010845 0.00024813
-1.4215 0.0011059 0.00025022
-1.3635 0.0017566 0.0003759
-1.3055 0.0029168 0.00058884
-1.2475 0.0038145 0.00075874
-1.1894 0.0054237 0.0010601
-1.1314 0.0081839 0.0015746
-1.0734 0.0097664 0.0018753
-1.0154 0.012235 0.0023297
-0.95735 0.016945 0.0032103
-0.89933 0.019633 0.0037124
-0.84131 0.026416 0.004974
-0.78328 0.028255 0.0053218
-0.72526 0.029978 0.0056428
-0.66724 0.036414 0.0068395
-0.60922 0.039262 0.0073723
-0.5512 0.042742 0.0080256
-0.49318 0.043276 0.0081232
-0.43516 0.045867 0.0086044
-0.37714 0.048642 0.0091226
-0.31912 0.046424 0.0087122
-0.26109 0.04725 0.0088655
-0.20307 0.050314 0.0094376
-0.14505 0.044227 0.0082992
-0.087032 0.047467 0.0089043
-0.029011 0.0411 0.0077144
0.029011 0.043065 0.0080822
0.087032 0.034957 0.00657
0.14505 0.040077 0.0075276
0.20307 0.028289 0.0053276
0.26109 0.025288 0.0047684
0.31912 0.023492 0.0044311
0.37714 0.019148 0.0036197
0.43516 0.014589 0.0027706
0.49318 0.011257 0.0021511
0.5512 0.0081508 0.0015683
0.60922 0.0053038 0.0010352
0.66724 0.0035948 0.00071981
0.72526 0.002585 0.00053008
0.78328 0.0013614 0.00029658
0.84131 0.001541 0.00033407
0.89933 0.00079205 0.00018998
0.95735 0.00068861 0.00017024
1.0154 0.00061946 0.00016042
1.0734 0.00054439 0.0001421
1.1314 0.00078267 0.00018948
1.1894 0.00052248 0.00013753
1.2475 0.00063191 0.00015808
1.3055 0.00043663 0.00012369
1.3635 0.00044499 0.00012306
1.4215 0.00030474 9.5059e-05
1.4795 0.00032521 9.6164e-05
1.5376 0.00044928 0.0001257
1.5956 0.00035397 0.00010467
1.6536 0.00028775 8.9758e-05
1.7116 0.00022221 7.6375e-05
1.7696 0.00030451 9.4988e-05
1.8277 0.00031079 9.5098e-05
1.8857 0.00012536 5.284e-05
1.9437 0.0001998 7.3357e-05
2.0017 0.00037028 0.00010631
2.0597 0.00026191 8.5365e-05
2.1178 0.00018554 6.8123e-05
2.1758 0.00011278 5.0624e-05
2.2338 0.00011136 4.9985e-05
2.2918 0.00023681 7.9156e-05
2.3499 0.00021439 7.6014e-05
2.4079 0.00035636 0.00010378
2.4659 0.00026871 8.758e-05
2.5239 0.0001434 5.7326e-05
2.5819 0.00020945 7.4262e-05
2.64 0.00022353 7.6829e-05
2.698 0.00027578 8.7847e-05
2.756 0.00016844 6.434e-05
2.814 0.00018115 6.6512e-05
2.872 0.00013505 5.6923e-05
2.9301 0.00018501 6.7926e-05
2.9881 0.00025891 8.4388e-05
3.0461 0.00015155 6.0581e-05
3.1041 0.00026175 8.5312e-05
3.1621 0.00022115 7.6012e-05
3.2202 0.00029993 9.356e-05
3.2782 0.00024024 8.0301e-05
3.3362 9.2546e-05 4.4844e-05
3.3942 0.00022486 7.7287e-05
3.4523 0.00024266 8.1112e-05
3.5103 0.00014873 5.9455e-05
3.5683 0.00012952 5.4593e-05
3.6263 0.00011142 5.0012e-05
3.6843 0.00027793 8.8534e-05
3.7424 0.00014869 5.9441e-05
3.8004 0.00020596 7.3027e-05
3.8584 0.00031739 9.7116e-05
3.9164 0.00011041 4.9556e-05
3.9744 0.00026309 8.5748e-05
4.0325 0.00018677 6.8573e-05
4.0905 0.0002064 7.3182e-05
4.1485 0.00011106 4.9848e-05
4.2065 3.7383e-05 2.7338e-05
4.2645 0.0001875 6.8842e-05
4.3226 0.00011125 4.9936e-05
4.3806 0.0001298 5.4708e-05
4.4386 9.3143e-05 4.5134e-05
4.4966 7.5041e-05 4.0047e-05
4.5547 0.00018437 6.7693e-05
4.6127 0.00016689 6.3751e-05
4.6707 0.00014785 5.9103e-05
4.7287 0.00016836 6.4313e-05
4.7867 0.0002055 7.2863e-05
4.8448 7.4232e-05 3.9615e-05
4.9028 0.00011122 4.9923e-05
4.9608 7.3996e-05 3.9489e-05
5.0188 9.2306e-05 4.4728e-05
5.0768 0.0001107 4.9687e-05
5.1349 0.0001862 6.8363e-05
5.1929 0.00014867 5.9432e-05
5.2509 0.00016587 6.3359e-05
5.3089 0.00012826 5.406e-05
5.3669 0.00020589 7.2999e-05
5.425 0.00011088 4.9771e-05
5.483 0.00018624 6.838e-05
5.541 0.00024102 8.0562e-05
5.599 0.00013038 5.4955e-05
5.6571 9.2737e-05 4.4937e-05
5.7151 0.00013234 5.5782e-05
5.7731 0.0001671 6.3829e-05
5.8311 0.00016751 6.3986e-05
5.8891 9.4234e-05 4.5662e-05
5.9472 0.00018451 6.7744e-05
6.0052 0.00014992 5.9929e-05
6.0632 0.00018664 6.8526e-05
6.1212 9.4099e-05 4.5597e-05
6.1792 5.5686e-05 3.3787e-05
6.2373 0.00016732 6.3914e-05
6.2953 0.00011183 5.0194e-05
6.3533 0.00015125 6.0462e-05
6.4113 0.00010987 4.9316e-05
6.4694 7.5576e-05 4.0332e-05
6.5274 0.00018569 6.8177e-05
6.5854 0.00011423 5.1274e-05
6.6434 0.00014986 5.9907e-05
6.7014 0.00011175 5.0161e-05
6.7595 9.3861e-05 4.5482e-05
6.8175 0.00013069 5.5086e-05
6.8755 0.00020648 7.3208e-05
6.9335 0.00022459 7.7194e-05
6.9915 7.3607e-05 3.9282e-05
7.0496 0.00016964 6.4799e-05
7.1076 7.5596e-05 4.0343e-05
7.1656 0.00018498 6.7917e-05
7.2236 0.00012964 5.4644e-05
7.2816 0.0001115 5.0045e-05
7.3397 0.00013108 5.5248e-05
7.3977 0.00020523 7.2767e-05
7.4557 0.00018644 6.8453e-05
7.5137 0.00018747 6.8831e-05
7.5718 0.00029776 9.2882e-05
7.6298 0.00011128 4.9949e-05
7.6878 0.00016747 6.3973e-05
7.7458 0.00013084 5.5149e-05
7.8038 7.447e-05 3.9742e-05
7.8619 0.00016648 6.3592e-05
7.9199 0.00020244 7.1776e-05
7.9779 5.6179e-05 3.4086e-05
8.0359 0.00018693 6.8632e-05
8.0939 9.2604e-05 4.4873e-05
8.152 0.00018495 6.7906e-05
8.21 0.00014952 5.9771e-05
8.268 9.2001e-05 4.4581e-05
8.326 7.3793e-05 3.9381e-05
8.384 0.00011014 4.9437e-05
8.4421 9.2854e-05 4.4994e-05
8.5001 0.00014801 5.9169e-05
8.5581 0.00012817 5.4025e-05
8.6161 0.00011046 4.958e-05
8.6742 0.0001102 4.9465e-05
8.7322 7.3928e-05 3.9453e-05
8.7902 9.2076e-05 4.4617e-05
8.8482 0.00024093 8.0532e-05
8.9062 7.364e-05 3.93e-05
8.9643 0.00018481 6.7854e-05
9.0223 7.3386e-05 3.9164e-05
9.0803 0.00014725 5.8864e-05
9.1383 0.00011107 4.9856e-05
9.1963 0.0002596 8.4611e-05
9.2544 0.00018312 6.7232e-05
9.3124 0.00016561 6.3259e-05
9.3704 0.00011194 5.0244e-05
9.4284 0.00011051 4.9604e-05
9.4864 0.00012865 5.4228e-05
9.5445 0.00016688 6.3745e-05
9.6025 0.0001108 4.9733e-05
9.6605 0.00018431 6.7669e-05
9.7185 0.00023788 7.9512e-05
9.7766 3.6674e-05 2.6819e-05
9.8346 0.00010998 4.9365e-05
9.8926 7.3239e-05 3.9086e-05
9.9506 0.0001461 5.8402e-05
10.009 0.00011034 4.9528e-05
10.067 0.00027725 8.8317e-05
10.125 0.00016303 6.2274e-05
10.183 0.00010939 4.9102e-05
10.241 7.3887e-05 3.9431e-05
10.299 9.1844e-05 4.4504e-05
10.357 7.27e-05 3.8798e-05
10.415 0.00016416 6.2705e-05
10.473 0.00012775 5.3845e-05
10.531 0.00016474 6.293e-05
10.589 0.00010988 4.9318e-05
10.647 0.00016327 6.2366e-05
10.705 0.00011009 4.9415e-05
10.763 0.00010919 4.9008e-05
10.821 0.00018313 6.7236e-05
10.879 0.00010897 4.891e-05
10.937 0.00012723 5.3627e-05
10.995 3.6564e-05 2.6739e-05
11.053 0.00021976 7.5533e-05
11.111 0.00027163 8.6527e-05
11.169 9.1263e-05 4.4223e-05
11.227 0.00012773 5.3836e-05
11.285 5.4275e-05 3.2931e-05
11.343 0.00018137 6.6592e-05
11.401 0.000181 6.6454e-05
11.459 0.00020058 7.1117e-05
11.517 0.00016533 6.3152e-05
11.575 0.00012684 5.3462e-05
11.633 0.00012719 5.361e-05
11.691 7.2724e-05 3.8811e-05
11.749 0.00018076 6.6368e-05
11.807 0.00018159 6.6672e-05
11.865 9.0977e-05 4.4084e-05
11.923 0.00014543 5.8137e-05
11.981 9.1125e-05 4.4156e-05
12.039 8.9674e-05 4.3453e-05
12.097 0.00014508 5.7995e-05
12.155 0.00014527 5.8071e-05
12.213 0.00016199 6.1876e-05
12.271 0.00014416 5.7628e-05
12.329 5.4175e-05 3.2871e-05
12.388 0.00018192 6.6791e-05
12.446 0.00016144 6.167e-05
12.504 0.00012515 5.2748e-05
12.562 0.0001434 5.7326e-05
12.62 0.00014358 5.7397e-05
12.678 0.00012619 5.3188e-05
12.736 7.1404e-05 3.8106e-05
12.794 0.00014266 5.7028e-05
12.852 0.00021455 7.3742e-05
12.91 0.00010808 4.8512e-05
12.968 0.00010598 4.7571e-05
13.026 0.00012472 5.2569e-05
13.084 0.0001248 5.2605e-05
13.142 0.00014272 5.7052e-05
13.2 0.00014074 5.6263e-05
13.258 0.00014201 5.6769e-05
13.316 0.00012426 5.2376e-05
13.374 0.00014235 5.6903e-05
13.432 0.0001064 4.7758e-05
13.49 8.876e-05 4.301e-05
13.548 7.1173e-05 3.7983e-05
13.606 0.00021241 7.3008e-05
13.664 0.00017655 6.4821e-05
13.722 0.00012415 5.2327e-05
13.78 8.875e-05 4.3005e-05
13.838 0.00015955 6.0945e-05
13.896 8.8104e-05 4.2692e-05
13.954 0.00014145 5.6544e-05
14.012 3.5287e-05 2.5805e-05
14.07 0.00019314 6.8479e-05
14.128 0.00017449 6.4064e-05
14.186 0.00014162 5.6611e-05
14.244 0.0001415 5.6564e-05
14.302 0.00015725 6.0069e-05
14.36 0.00015836 6.0491e-05
14.418 3.5e-05 2.5596e-05
14.476 0.00012327 5.1957e-05
14.534 0.00012225 5.1528e-05
14.592 0.00020909 7.1868e-05
14.65 0.00015689 5.993e-05
14.708 8.7601e-05 4.2448e-05
14.766 0.0001738 6.3811e-05
14.824 0.00019082 6.7656e-05
14.882 0.00013867 5.5432e-05
14.94 3.479e-05 2.5442e-05
14.998 0.00022564 7.542e-05
15.056 0.00017294 6.3496e-05
15.114 0.0001564 5.9743e-05
15.173 0.00017507 6.4278e-05
15.231 6.9254e-05 3.6959e-05
15.289 0.00015477 5.9118e-05
15.347 0.00015516 5.927e-05
15.405 0.00013924 5.5662e-05
15.463 0.00022427 7.4962e-05
15.521 0.00013761 5.5011e-05
15.579 0.00010367 4.6531e-05
15.637 0.00018985 6.7311e-05
15.695 0.00017149 6.2964e-05
15.753 0.00020599 7.0799e-05
15.811 8.5095e-05 4.1234e-05
15.869 0.00012018 5.0657e-05
15.927 0.00013682 5.4694e-05
15.985 6.8048e-05 3.6315e-05
16.043 6.8382e-05 3.6493e-05
16.101 0.00022167 7.4093e-05
16.159 0.00013671 5.4652e-05
16.217 0.00015201 5.8068e-05
16.275 0.00015257 5.828e-05
16.333 0.0001187 5.0033e-05
16.391 0.00016985 6.2361e-05
16.449 6.7954e-05 3.6265e-05
16.507 0.00010161 4.561e-05
16.565 1.6927e-05 1.7219e-05
16.623 0.00016834 6.1808e-05
16.681 0.00015249 5.825e-05
16.739 0.00011726 4.9424e-05
16.797 0.00021984 7.3484e-05
16.855 0.00010021 4.498e-05
16.913 0.00018387 6.5192e-05
16.971 0.00010012 4.4938e-05
17.029 6.6771e-05 3.5634e-05
17.087 0.00013323 5.3258e-05
17.145 0.00011592 4.8858e-05
17.203 0.00013326 5.3271e-05
17.261 8.2638e-05 4.0043e-05
17.319 4.9791e-05 3.021e-05
17.377 8.1804e-05 3.9639e-05
17.435 0.00016469 6.0467e-05
17.493 0.00024728 7.8768e-05
17.551 8.2268e-05 3.9864e-05
17.609 0.00016173 5.9378e-05
17.667 0.00017873 6.337e-05
17.725 9.8648e-05 4.4278e-05
17.783 0.00011513 4.8528e-05
17.841 0.00022542 7.3472e-05
17.9 0.00011354 4.7857e-05
17.958 0.00017885 6.3412e-05
18.016 8.0861e-05 3.9183e-05
18.074 4.8318e-05 2.9317e-05
18.132 0.00012987 5.1916e-05
18.19 0.00016139 5.9256e-05
18.248 0.00022392 7.2983e-05
18.306 0.00015968 5.8628e-05
18.364 0.00017751 6.2939e-05
18.422 0.00012842 5.1336e-05
18.48 0.00015966 5.862e-05
18.538 0.00019199 6.5989e-05
18.596 9.6087e-05 4.3129e-05
18.654 0.00012779 5.1084e-05
18.712 0.00011113 4.6842e-05
18.77 0.0001586 5.823e-05
18.828 0.00022287 7.2642e-05
18.886 6.3543e-05 3.3911e-05
18.944 9.4892e-05 4.2593e-05
19.002 0.00014196 5.4228e-05
19.06 6.3197e-05 3.3727e-05
19.118 0.00012633 5.0502e-05
19.176 0.00015771 5.7904e-05
19.234 0.00014036 5.3617e-05
19.292 0.00015672 5.7542e-05
19.35 0.00010945 4.6132e-05
19.408 0.00012562 5.0215e-05
19.466 7.7797e-05 3.7698e-05
19.524 0.00015577 5.7192e-05
19.582 0.00017113 6.0677e-05
19.64 0.00010807 4.555e-05
19.698 6.1107e-05 3.2611e-05
19.756 0.00013797 5.2704e-05
19.814 0.00016992 6.0246e-05
19.872 0.0001077 4.5396e-05
19.93 0.00013711 5.2375e-05
19.988 4.5933e-05 2.787e-05
20.046 0.00012249 4.8967e-05
20.104 7.5373e-05 3.6523e-05
20.162 9.0916e-05 4.0808e-05
20.22 0.00012101 4.8376e-05
20.278 0.00016826 5.9657e-05
20.336 0.00019667 6.5738e-05
20.394 0.0002529 7.7382e-05
20.452 0.00010509 4.4294e-05
20.51 0.00018178 6.2479e-05
20.568 7.538e-05 3.6527e-05
20.626 0.00011931 4.7695e-05
20.685 0.00011911 4.7615e-05
20.743 8.9376e-05 4.0117e-05
20.801 0.00019352 6.4684e-05
20.859 0.0002356 7.349e-05
20.917 0.0001332 5.0882e-05
20.975 0.00017706 6.0858e-05
21.033 8.7598e-05 3.9319e-05
21.091 0.00020482 6.6758e-05
21.149 0.00011672 4.666e-05
21.207 0.00013204 5.0439e-05
21.265 0.00010198 4.2984e-05
21.323 0.00012998 4.9652e-05
21.381 0.00014551 5.3423e-05
21.439 0.0001313 5.0154e-05
21.497 0.00027201 8.0433e-05
21.555 0.00011368 4.5442e-05
21.613 0.00014295 5.2487e-05
21.671 0.00017136 5.8899e-05
21.729 0.00019917 6.4917e-05
21.787 0.00021098 6.7208e-05
21.845 0.00021123 6.7285e-05
21.903 0.00024043 7.3566e-05
21.961 0.00015392 5.4574e-05
22.019 0.00016635 5.7175e-05
22.077 5.5561e-05 2.9651e-05
22.135 0.00012531 4.7866e-05
22.193 0.00012426 4.7466e-05
22.251 8.2225e-05 3.6907e-05
22.309 6.8781e-05 3.3329e-05
22.367 0.00017816 5.9551e-05
22.425 0.00020557 6.5483e-05
22.483 0.00017667 5.9051e-05
22.541 0.00019122 6.2324e-05
22.599 0.00017726 5.925e-05
22.657 0.00016269 5.5917e-05
22.715 0.00013469 4.9454e-05
22.773 8.0293e-05 3.604e-05
22.831 0.00020162 6.4225e-05
22.889 0.00013418 4.9265e-05
22.947 0.00010588 4.2325e-05
23.005 0.00014548 5.1582e-05
23.063 0.00014527 5.1508e-05
23.121 0.00018327 5.9733e-05
23.179 0.00015548 5.3441e-05
23.237 0.00013037 4.7867e-05
23.295 0.00010314 4.123e-05
23.353 0.00011633 4.4435e-05
23.412 0.00011511 4.397e-05
23.47 0.00011515 4.3984e-05
23.528 0.0002039 6.3602e-05
23.586 0.00017619 5.7427e-05
23.644 0.00017538 5.7162e-05
23.702 0.00012509 4.5928e-05
23.76 0.00017485 5.699e-05
23.818 0.00017344 5.6528e-05
23.876 0.00021034 6.436e-05
23.934 8.5883e-05 3.6199e-05
23.992 8.5694e-05 3.612e-05
24.05 0.00014702 5.0531e-05
24.108 0.00012078 4.4346e-05
24.166 4.8521e-05 2.5894e-05
24.224 0.00021643 6.5057e-05
24.282 7.1897e-05 3.2271e-05
24.34 0.00015419 5.1538e-05
24.398 8.283e-05 3.4913e-05
24.456 0.00017772 5.6612e-05
24.514 0.00019945 6.1027e-05
24.572 5.8441e-05 2.8319e-05
24.63 0.00019742 6.0407e-05
24.688 0.00018559 5.7893e-05
24.746 0.00011505 4.2242e-05
24.804 0.00012504 4.4334e-05
24.862 0.00018137 5.6576e-05
24.92 0.00019177 5.8678e-05
24.978 0.00016746 5.3345e-05
25.036 0.00015506 5.054e-05
25.094 0.00021093 6.237e-05
25.152 0.00016496 5.2547e-05
25.21 0.00012023 4.263e-05
25.268 0.00011891 4.2162e-05
25.326 0.00010848 3.983e-05
25.384 0.00017176 5.3577e-05
25.442 0.00015964 5.0853e-05
25.5 0.00012711 4.3689e-05
25.558 0.00017892 5.4748e-05
25.616 0.00017777 5.4393e-05
25.674 0.00014573 4.7497e-05
25.732 0.00015373 4.8971e-05
25.79 0.00015347 4.8886e-05
25.848 0.00011256 3.991e-05
25.906 0.00013042 4.3593e-05
25.964 0.0001497 4.7686e-05
26.022 0.0001189 4.0868e-05
26.08 0.00017904 5.3818e-05
26.138 0.00012831 4.289e-05
26.197 0.00012653 4.2294e-05
26.255 6.7616e-05 2.85e-05
26.313 0.00011582 3.9809e-05
26.371 6.674e-05 2.8131e-05
26.429 0.00014065 4.4803e-05
26.487 0.00016737 5.0312e-05
26.545 0.00016622 4.9966e-05
26.603 0.00011888 3.9736e-05
26.661 0.00017923 5.2195e-05
26.719 0.00013293 4.2343e-05
26.777 9.7178e-05 3.4455e-05
26.835 0.0001913 5.4196e-05
26.893 0.00012848 4.0928e-05
26.951 6.7999e-05 2.7183e-05
27.009 0.00015204 4.5704e-05
27.067 0.0001834 5.1958e-05
27.125 0.00017104 4.9104e-05
27.183 0.00012926 4.0319e-05
27.241 0.00015984 4.6546e-05
27.299 0.00014133 4.2484e-05
27.357 0.00016099 4.622e-05
27.415 0.00011421 3.6382e-05
27.473 0.00016581 4.6972e-05
27.531 0.00017007 4.7582e-05
27.589 0.00014481 4.2169e-05
27.647 7.8364e-05 2.7785e-05
27.705 0.00014676 4.2134e-05
27.763 0.00021231 5.4979e-05
27.821 7.3708e-05 2.6134e-05
27.879 0.0001243 3.6756e-05
27.937 0.00012192 3.6051e-05
27.995 0.00011338 3.4082e-05
28.053 0.000105 3.2128e-05
28.111 0.00010908 3.279e-05
28.169 0.00017118 4.5057e-05
28.227 0.00015456 4.1428e-05
28.285 0.00018208 4.6458e-05
28.343 0.00013887 3.7588e-05
28.401 0.00015518 4.0506e-05
28.459 0.00010415 2.9901e-05
28.517 0.0001285 3.4441e-05
28.575 0.0001423 3.685e-05
28.633 0.00015895 3.9764e-05
28.691 0.00013435 3.453e-05
28.749 0.00017664 4.2181e-05
28.807 0.00014646 3.5817e-05
28.865 0.00014513 3.497e-05
28.924 0.00016121 3.7347e-05
28.982 0.00014367 3.2969e-05
29.04 0.00018223 3.8616e-05
29.098 0.00015634 3.4943e-05
29.156 0.00015767 3.5322e-05
29.214 0.00011834 2.5739e-05
29.272 0.00015226 4.2104e-05
29.33 0.00013 4.141e-05
29.388 0.00015835 4.1006e-05
29.446 0.00012973 3.6296e-05
29.504 0 1
29.562 0 1
29.62 0 1
29.678 0 1
